# Pbox  37000.00   4 4095  0.0     0    1.0000 0.06563     4
# VJ3.0  pw (us)  pwr  pwrf  dres  dmf  dcyc   B1max (kHz)  Stype
# ---------------------------------------------------------------
# Pxsim 0.0370000 63.2590 1.000 300.0 0.0000000 0.0000000 0.00
# data: pw (s) B1max (Hz) status sw (Hz) T1 (s)   T2 (s) RDC (Hz)
# ---------------------------------------------------------------
# Pbox.inp data :
# ~~~~~~~~~~~~~~~~~~~~~~~~~~~Waves~~~~~~~~~~~~~~~~~~~~~~~~~~~~~~~~~~
#   shape   bw(/pw)   ofs  st  ph  fla  trev  d1  d2   d0   wrp  php
# ~~~~~~~~~~~~~~~~~~~~~~~~~~~~~~~~~~~~~~~~~~~~~~~~~~~~~~~~~~~~~~~~~~
# { rsnob 50.0 0.0 1 0.000 180.0 }
#
# type      = r          mod       = n          dres      = n         
# steps     = n          stepsize  = 10.00      attn      = i         
# refofs    = n          wrap      = n          sfrq      = n         
# sucyc     = d          reps      = 4.000000   header    = y         
# bscor     = n          pad1      = n          pad2      = n         
# bsim      = n          T1        = n          T2        = n         
# rdc       = n          dcyc      = n          sw        = n         
#
# RF Calibration Data :  ref_pwr   = 58         ref_pw90  = 7.60
# ~~~~~~~~~~~~~~~~~~~~~
###
# ------------------- Shape data ------------------
# pwtot      = 0.0370000 (total pw, s)
# power      = 4 (power level, dB)
# pwrf       = 4095 (fine power)
# B1max      = 0.0656 (B1max, kHz)
# B1rms      = 0.0279 (B1[RMS], kHz)
# nptot      = 3700 (total number of steps)
# stepsize   = 10.00 (length of a single step, us)
# maxamp     = 987.0 (max amplitude)
# ------------------------------------------------- 
#      phase      amplitude   length     gate 
# ------------------------------------------------- 
        0.00      1023.00      0.0        0
     180.000       49.786      1.0        1
     180.000       49.787      1.0        1
     180.000       49.789      1.0        1
     180.000       49.792      1.0        1
     180.000       49.797      1.0        1
     180.000       49.804      1.0        1
     180.000       49.812      1.0        1
     180.000       49.821      1.0        1
     180.000       49.832      1.0        1
     180.000       49.844      1.0        1
     180.000       49.858      1.0        1
     180.000       49.873      1.0        1
     180.000       49.889      1.0        1
     180.000       49.907      1.0        1
     180.000       49.926      1.0        1
     180.000       49.947      1.0        1
     180.000       49.969      1.0        1
     180.000       49.993      1.0        1
     180.000       50.018      1.0        1
     180.000       50.044      1.0        1
     180.000       50.072      1.0        1
     180.000       50.101      1.0        1
     180.000       50.132      1.0        1
     180.000       50.164      1.0        1
     180.000       50.197      1.0        1
     180.000       50.232      1.0        1
     180.000       50.269      1.0        1
     180.000       50.306      1.0        1
     180.000       50.346      1.0        1
     180.000       50.386      1.0        1
     180.000       50.428      1.0        1
     180.000       50.471      1.0        1
     180.000       50.516      1.0        1
     180.000       50.562      1.0        1
     180.000       50.610      1.0        1
     180.000       50.659      1.0        1
     180.000       50.709      1.0        1
     180.000       50.761      1.0        1
     180.000       50.815      1.0        1
     180.000       50.869      1.0        1
     180.000       50.925      1.0        1
     180.000       50.982      1.0        1
     180.000       51.041      1.0        1
     180.000       51.101      1.0        1
     180.000       51.163      1.0        1
     180.000       51.226      1.0        1
     180.000       51.290      1.0        1
     180.000       51.356      1.0        1
     180.000       51.423      1.0        1
     180.000       51.491      1.0        1
     180.000       51.561      1.0        1
     180.000       51.632      1.0        1
     180.000       51.705      1.0        1
     180.000       51.779      1.0        1
     180.000       51.854      1.0        1
     180.000       51.931      1.0        1
     180.000       52.008      1.0        1
     180.000       52.088      1.0        1
     180.000       52.168      1.0        1
     180.000       52.250      1.0        1
     180.000       52.334      1.0        1
     180.000       52.418      1.0        1
     180.000       52.505      1.0        1
     180.000       52.592      1.0        1
     180.000       52.681      1.0        1
     180.000       52.771      1.0        1
     180.000       52.862      1.0        1
     180.000       52.955      1.0        1
     180.000       53.049      1.0        1
     180.000       53.144      1.0        1
     180.000       53.240      1.0        1
     180.000       53.338      1.0        1
     180.000       53.438      1.0        1
     180.000       53.538      1.0        1
     180.000       53.640      1.0        1
     180.000       53.743      1.0        1
     180.000       53.847      1.0        1
     180.000       53.953      1.0        1
     180.000       54.060      1.0        1
     180.000       54.168      1.0        1
     180.000       54.278      1.0        1
     180.000       54.389      1.0        1
     180.000       54.501      1.0        1
     180.000       54.614      1.0        1
     180.000       54.729      1.0        1
     180.000       54.844      1.0        1
     180.000       54.962      1.0        1
     180.000       55.080      1.0        1
     180.000       55.200      1.0        1
     180.000       55.320      1.0        1
     180.000       55.442      1.0        1
     180.000       55.566      1.0        1
     180.000       55.690      1.0        1
     180.000       55.816      1.0        1
     180.000       55.943      1.0        1
     180.000       56.071      1.0        1
     180.000       56.200      1.0        1
     180.000       56.331      1.0        1
     180.000       56.463      1.0        1
     180.000       56.596      1.0        1
     180.000       56.730      1.0        1
     180.000       56.865      1.0        1
     180.000       57.002      1.0        1
     180.000       57.139      1.0        1
     180.000       57.278      1.0        1
     180.000       57.418      1.0        1
     180.000       57.559      1.0        1
     180.000       57.702      1.0        1
     180.000       57.845      1.0        1
     180.000       57.990      1.0        1
     180.000       58.136      1.0        1
     180.000       58.282      1.0        1
     180.000       58.431      1.0        1
     180.000       58.580      1.0        1
     180.000       58.730      1.0        1
     180.000       58.881      1.0        1
     180.000       59.034      1.0        1
     180.000       59.187      1.0        1
     180.000       59.342      1.0        1
     180.000       59.498      1.0        1
     180.000       59.655      1.0        1
     180.000       59.813      1.0        1
     180.000       59.972      1.0        1
     180.000       60.132      1.0        1
     180.000       60.293      1.0        1
     180.000       60.455      1.0        1
     180.000       60.618      1.0        1
     180.000       60.783      1.0        1
     180.000       60.948      1.0        1
     180.000       61.115      1.0        1
     180.000       61.282      1.0        1
     180.000       61.450      1.0        1
     180.000       61.620      1.0        1
     180.000       61.790      1.0        1
     180.000       61.962      1.0        1
     180.000       62.134      1.0        1
     180.000       62.308      1.0        1
     180.000       62.482      1.0        1
     180.000       62.658      1.0        1
     180.000       62.834      1.0        1
     180.000       63.011      1.0        1
     180.000       63.190      1.0        1
     180.000       63.369      1.0        1
     180.000       63.549      1.0        1
     180.000       63.730      1.0        1
     180.000       63.913      1.0        1
     180.000       64.096      1.0        1
     180.000       64.280      1.0        1
     180.000       64.464      1.0        1
     180.000       64.650      1.0        1
     180.000       64.837      1.0        1
     180.000       65.025      1.0        1
     180.000       65.213      1.0        1
     180.000       65.402      1.0        1
     180.000       65.593      1.0        1
     180.000       65.784      1.0        1
     180.000       65.976      1.0        1
     180.000       66.169      1.0        1
     180.000       66.362      1.0        1
     180.000       66.557      1.0        1
     180.000       66.752      1.0        1
     180.000       66.948      1.0        1
     180.000       67.145      1.0        1
     180.000       67.343      1.0        1
     180.000       67.542      1.0        1
     180.000       67.741      1.0        1
     180.000       67.942      1.0        1
     180.000       68.143      1.0        1
     180.000       68.344      1.0        1
     180.000       68.547      1.0        1
     180.000       68.750      1.0        1
     180.000       68.955      1.0        1
     180.000       69.159      1.0        1
     180.000       69.365      1.0        1
     180.000       69.571      1.0        1
     180.000       69.778      1.0        1
     180.000       69.986      1.0        1
     180.000       70.195      1.0        1
     180.000       70.404      1.0        1
     180.000       70.614      1.0        1
     180.000       70.824      1.0        1
     180.000       71.036      1.0        1
     180.000       71.248      1.0        1
     180.000       71.460      1.0        1
     180.000       71.674      1.0        1
     180.000       71.888      1.0        1
     180.000       72.102      1.0        1
     180.000       72.318      1.0        1
     180.000       72.533      1.0        1
     180.000       72.750      1.0        1
     180.000       72.967      1.0        1
     180.000       73.185      1.0        1
     180.000       73.403      1.0        1
     180.000       73.622      1.0        1
     180.000       73.842      1.0        1
     180.000       74.062      1.0        1
     180.000       74.282      1.0        1
     180.000       74.504      1.0        1
     180.000       74.726      1.0        1
     180.000       74.948      1.0        1
     180.000       75.171      1.0        1
     180.000       75.394      1.0        1
     180.000       75.618      1.0        1
     180.000       75.843      1.0        1
     180.000       76.068      1.0        1
     180.000       76.293      1.0        1
     180.000       76.519      1.0        1
     180.000       76.745      1.0        1
     180.000       76.972      1.0        1
     180.000       77.200      1.0        1
     180.000       77.428      1.0        1
     180.000       77.656      1.0        1
     180.000       77.885      1.0        1
     180.000       78.114      1.0        1
     180.000       78.344      1.0        1
     180.000       78.574      1.0        1
     180.000       78.804      1.0        1
     180.000       79.035      1.0        1
     180.000       79.266      1.0        1
     180.000       79.498      1.0        1
     180.000       79.730      1.0        1
     180.000       79.962      1.0        1
     180.000       80.195      1.0        1
     180.000       80.428      1.0        1
     180.000       80.662      1.0        1
     180.000       80.896      1.0        1
     180.000       81.130      1.0        1
     180.000       81.364      1.0        1
     180.000       81.599      1.0        1
     180.000       81.834      1.0        1
     180.000       82.070      1.0        1
     180.000       82.305      1.0        1
     180.000       82.541      1.0        1
     180.000       82.777      1.0        1
     180.000       83.014      1.0        1
     180.000       83.251      1.0        1
     180.000       83.488      1.0        1
     180.000       83.725      1.0        1
     180.000       83.962      1.0        1
     180.000       84.200      1.0        1
     180.000       84.438      1.0        1
     180.000       84.676      1.0        1
     180.000       84.915      1.0        1
     180.000       85.153      1.0        1
     180.000       85.392      1.0        1
     180.000       85.631      1.0        1
     180.000       85.870      1.0        1
     180.000       86.109      1.0        1
     180.000       86.348      1.0        1
     180.000       86.588      1.0        1
     180.000       86.827      1.0        1
     180.000       87.067      1.0        1
     180.000       87.307      1.0        1
     180.000       87.547      1.0        1
     180.000       87.787      1.0        1
     180.000       88.027      1.0        1
     180.000       88.267      1.0        1
     180.000       88.508      1.0        1
     180.000       88.748      1.0        1
     180.000       88.989      1.0        1
     180.000       89.229      1.0        1
     180.000       89.470      1.0        1
     180.000       89.710      1.0        1
     180.000       89.951      1.0        1
     180.000       90.191      1.0        1
     180.000       90.432      1.0        1
     180.000       90.672      1.0        1
     180.000       90.913      1.0        1
     180.000       91.154      1.0        1
     180.000       91.394      1.0        1
     180.000       91.635      1.0        1
     180.000       91.875      1.0        1
     180.000       92.115      1.0        1
     180.000       92.356      1.0        1
     180.000       92.596      1.0        1
     180.000       92.836      1.0        1
     180.000       93.076      1.0        1
     180.000       93.316      1.0        1
     180.000       93.556      1.0        1
     180.000       93.796      1.0        1
     180.000       94.036      1.0        1
     180.000       94.275      1.0        1
     180.000       94.515      1.0        1
     180.000       94.754      1.0        1
     180.000       94.993      1.0        1
     180.000       95.232      1.0        1
     180.000       95.471      1.0        1
     180.000       95.709      1.0        1
     180.000       95.948      1.0        1
     180.000       96.186      1.0        1
     180.000       96.424      1.0        1
     180.000       96.662      1.0        1
     180.000       96.899      1.0        1
     180.000       97.137      1.0        1
     180.000       97.374      1.0        1
     180.000       97.610      1.0        1
     180.000       97.847      1.0        1
     180.000       98.083      1.0        1
     180.000       98.319      1.0        1
     180.000       98.555      1.0        1
     180.000       98.791      1.0        1
     180.000       99.026      1.0        1
     180.000       99.261      1.0        1
     180.000       99.495      1.0        1
     180.000       99.730      1.0        1
     180.000       99.964      1.0        1
     180.000      100.197      1.0        1
     180.000      100.430      1.0        1
     180.000      100.663      1.0        1
     180.000      100.896      1.0        1
     180.000      101.128      1.0        1
     180.000      101.360      1.0        1
     180.000      101.591      1.0        1
     180.000      101.822      1.0        1
     180.000      102.053      1.0        1
     180.000      102.283      1.0        1
     180.000      102.513      1.0        1
     180.000      102.742      1.0        1
     180.000      102.971      1.0        1
     180.000      103.199      1.0        1
     180.000      103.427      1.0        1
     180.000      103.655      1.0        1
     180.000      103.882      1.0        1
     180.000      104.109      1.0        1
     180.000      104.335      1.0        1
     180.000      104.560      1.0        1
     180.000      104.786      1.0        1
     180.000      105.010      1.0        1
     180.000      105.234      1.0        1
     180.000      105.458      1.0        1
     180.000      105.681      1.0        1
     180.000      105.903      1.0        1
     180.000      106.125      1.0        1
     180.000      106.347      1.0        1
     180.000      106.568      1.0        1
     180.000      106.788      1.0        1
     180.000      107.008      1.0        1
     180.000      107.227      1.0        1
     180.000      107.445      1.0        1
     180.000      107.663      1.0        1
     180.000      107.881      1.0        1
     180.000      108.097      1.0        1
     180.000      108.313      1.0        1
     180.000      108.529      1.0        1
     180.000      108.744      1.0        1
     180.000      108.958      1.0        1
     180.000      109.171      1.0        1
     180.000      109.384      1.0        1
     180.000      109.596      1.0        1
     180.000      109.808      1.0        1
     180.000      110.019      1.0        1
     180.000      110.229      1.0        1
     180.000      110.438      1.0        1
     180.000      110.647      1.0        1
     180.000      110.855      1.0        1
     180.000      111.062      1.0        1
     180.000      111.269      1.0        1
     180.000      111.474      1.0        1
     180.000      111.679      1.0        1
     180.000      111.884      1.0        1
     180.000      112.087      1.0        1
     180.000      112.290      1.0        1
     180.000      112.492      1.0        1
     180.000      112.693      1.0        1
     180.000      112.894      1.0        1
     180.000      113.093      1.0        1
     180.000      113.292      1.0        1
     180.000      113.490      1.0        1
     180.000      113.687      1.0        1
     180.000      113.884      1.0        1
     180.000      114.079      1.0        1
     180.000      114.274      1.0        1
     180.000      114.468      1.0        1
     180.000      114.661      1.0        1
     180.000      114.853      1.0        1
     180.000      115.044      1.0        1
     180.000      115.235      1.0        1
     180.000      115.424      1.0        1
     180.000      115.613      1.0        1
     180.000      115.801      1.0        1
     180.000      115.987      1.0        1
     180.000      116.173      1.0        1
     180.000      116.358      1.0        1
     180.000      116.543      1.0        1
     180.000      116.726      1.0        1
     180.000      116.908      1.0        1
     180.000      117.089      1.0        1
     180.000      117.270      1.0        1
     180.000      117.449      1.0        1
     180.000      117.627      1.0        1
     180.000      117.805      1.0        1
     180.000      117.981      1.0        1
     180.000      118.157      1.0        1
     180.000      118.331      1.0        1
     180.000      118.505      1.0        1
     180.000      118.678      1.0        1
     180.000      118.849      1.0        1
     180.000      119.020      1.0        1
     180.000      119.189      1.0        1
     180.000      119.358      1.0        1
     180.000      119.525      1.0        1
     180.000      119.691      1.0        1
     180.000      119.857      1.0        1
     180.000      120.021      1.0        1
     180.000      120.184      1.0        1
     180.000      120.346      1.0        1
     180.000      120.508      1.0        1
     180.000      120.668      1.0        1
     180.000      120.827      1.0        1
     180.000      120.984      1.0        1
     180.000      121.141      1.0        1
     180.000      121.297      1.0        1
     180.000      121.452      1.0        1
